File: FSRI_Materials/FSRI_XPS_Foam_Board-25.csv
Time,HRRPUA
0.0,0.0
160.152,0.0
163.421,68.9
166.853,199.8
170.285,295.1
173.717,371.8
177.15,451.8
180.582,509.6
184.014,528.7
187.446,515.6
190.878,479.0
194.311,433.0
197.743,385.8
201.175,347.3
204.607,317.4
208.039,291.6
211.472,266.8
214.904,237.6
218.336,204.3
221.768,171.2
225.2,139.0
228.633,109.1
232.065,82.8
235.497,60.8
238.929,44.9
242.361,34.2
245.794,26.3
249.226,20.0
252.658,13.5
256.09,6.4
259.522,1.5
262.955,0.0
266.387,0.0
269.819,0.0
273.251,0.0
276.683,0.0
280.116,0.0
283.548,0.0
286.98,0.0
290.412,0.0
293.845,0.0
297.277,0.0
300.709,0.0
304.141,0.0
307.573,0.0
311.006,0.0
314.438,0.0
317.87,0.0
321.302,0.0
324.734,0.0
328.167,0.0
331.599,0.0
335.031,0.0
338.463,0.0
341.895,0.0
345.328,0.0
348.76,0.0
352.192,0.0
355.624,0.0
359.056,0.0
362.489,0.0
365.921,0.0
369.353,0.0
372.785,0.0
376.217,0.0
379.65,0.0
383.082,0.0
386.514,0.0
389.946,0.0
393.378,0.0
396.811,0.0
400.243,0.0
403.675,0.0
407.107,0.0
410.539,0.0
413.972,0.0
417.404,0.0
420.836,0.0
424.268,0.0
427.7,0.0
431.133,0.0
434.565,0.0
437.997,0.0
441.429,0.0
444.861,0.0
448.294,0.0
451.726,0.0
455.158,0.0
458.59,0.0
462.022,0.0
465.455,0.0
468.887,0.0
472.319,0.0
475.751,0.0
479.183,0.0
482.616,0.0
486.048,0.0
489.48,0.0
492.912,0.0
496.345,0.0
499.777,0.0
503.209,0.0
506.641,0.0
510.073,0.0
513.506,0.0
516.938,0.0
520.37,0.0
523.802,0.0
527.234,0.0
530.667,0.0
534.099,0.0
537.531,0.0
540.963,0.0
544.395,0.0
547.828,0.0
551.26,0.0
554.692,0.0
558.124,0.0
561.556,0.0
564.989,0.0
568.421,0.0