File: FSRI_Materials/FSRI_XPS_Foam_Board-50.csv
Time,HRRPUA
0.0,0.0
17.056,0.0
17.404,58.8
19.6768,160.6
21.9495,222.2
24.2222,291.0
26.495,382.9
28.7677,502.0
31.0404,653.2
33.3131,782.5
35.5859,866.4
37.8586,908.9
40.1313,901.9
42.404,855.5
44.6768,773.5
46.9495,674.6
49.2222,568.4
51.495,469.0
53.7677,387.0
56.0404,316.1
58.3131,251.1
60.5859,197.4
62.8586,153.8
65.1313,116.1
67.404,87.4
69.6768,66.4
71.9495,49.0
74.2222,36.9
76.495,27.8
78.7677,21.2
81.0404,15.7
83.3131,12.4
85.5859,10.9
87.8586,9.3
90.1313,7.7
92.404,6.0
94.6768,3.5
96.9495,0.6
99.2222,0.0
101.495,0.0
103.768,0.0
106.04,0.0
108.313,0.0
110.586,0.0
112.859,0.0
115.131,0.0
117.404,0.0
119.677,0.0
121.949,0.0
124.222,0.0
126.495,0.0
128.768,0.0
131.04,0.0
133.313,0.0
135.586,0.0
137.859,0.0
140.131,0.0
142.404,0.0
144.677,0.0
146.949,0.0
149.222,0.0
151.495,0.0
153.768,0.0
156.04,0.0
158.313,0.0
160.586,0.0
162.859,0.0
165.131,0.0
167.404,0.0
169.677,0.0
171.949,0.0
174.222,0.0
176.495,0.0
178.768,0.0
181.04,0.0
183.313,0.0
185.586,0.0
187.859,0.0
190.131,0.0
192.404,0.0
194.677,0.0
196.949,0.0
199.222,0.0
201.495,0.0
203.768,0.0
206.04,0.0
208.313,0.0
210.586,0.0
212.859,0.0
215.131,0.0
217.404,0.0
219.677,0.0
221.949,0.0
224.222,0.0
226.495,0.0
228.768,0.0
231.04,0.0
233.313,0.0
235.586,0.0
237.859,0.0
240.131,0.0
242.404,0.0