File: FSRI_Materials/FSRI_XPS_Foam_Board-75.csv
Time,HRRPUA
0.0,0.0
4.70542,0.0
4.80145,63.9
7.33666,191.9
9.87187,276.7
12.4071,401.1
14.9423,583.9
17.4775,863.0
20.0127,1142.4
22.5479,1305.8
25.0831,1326.1
27.6183,1184.7
30.1536,929.6
32.6888,635.2
35.224,397.0
37.7592,232.6
40.2944,133.5
42.8296,78.1
45.3648,46.1
47.9,28.6
50.4353,19.7
52.9705,14.2
55.5057,9.2
58.0409,2.4
60.5761,0.0
63.1113,0.0
65.6465,0.0
68.1817,0.0
70.7169,0.0
73.2522,0.0
75.7874,0.0
78.3226,0.0
80.8578,0.0
83.393,0.0
85.9282,0.0
88.4634,0.0
90.9986,0.0
93.5338,0.0
96.0691,0.0
98.6043,0.0
101.139,0.0
103.675,0.0
106.21,0.0
108.745,0.0
111.28,0.0
113.816,0.0
116.351,0.0
118.886,0.0
121.421,0.0
123.956,0.0
126.492,0.0
129.027,0.0
131.562,0.0
134.097,0.0
136.632,0.0
139.168,0.0
141.703,0.0
144.238,0.0
146.773,0.3
149.308,0.4
151.844,0.2
154.379,0.0
156.914,0.0
159.449,0.0
161.985,0.0
164.52,0.0
167.055,0.0
169.59,0.0
172.125,0.0
174.661,0.0
177.196,0.0
179.731,0.0
182.266,0.0
184.801,0.0