File: Scaling_Pyrolysis/FSRI_XPS_Foam_Board-75.csv
Time,HRRPUA
0.0,0.0
0.225,0.0
0.25,14.7088
1.22297,27.914
2.19595,44.6705
3.16892,64.5728
4.14189,87.2346
5.11486,112.684
6.08784,141.729
7.06081,175.568
8.03378,215.231
9.00676,258.988
9.97973,305.172
10.9527,355.06
11.9257,411.935
12.8986,477.102
13.8716,550.851
14.8446,631.413
15.8176,717.923
16.7905,807.892
17.7635,895.439
18.7365,978.606
19.7095,1057.8
20.6824,1127.13
21.6554,1184.05
22.6284,1221.47
23.6014,1237.64
24.5743,1236.68
25.5473,1215.61
26.5203,1174.2
27.4932,1118.65
28.4662,1046.49
29.4392,965.227
30.4122,877.005
31.3851,783.213
32.3581,689.578
33.3311,598.869
34.3041,512.633
35.277,433.371
36.25,361.782
37.223,299.249
38.1959,246.19
39.1689,201.152
40.1419,163.613
41.1149,132.663
42.0878,107.558
43.0608,87.3038
44.0338,71.2653
45.0068,58.4363
45.9797,48.2717
46.9527,40.1047
47.9257,33.5389
48.8986,28.2266
49.8716,23.9742
50.8446,20.6407
51.8176,18.0388
52.7905,15.9396
53.7635,14.2234
54.7365,12.7889
55.7095,11.5526
56.6824,10.4818
57.6554,9.56992
58.6284,8.80364
59.6014,8.14466
60.5743,7.56008
61.5473,7.00889
62.5203,6.50721
63.4932,6.04824
64.4662,5.63469
65.4392,5.29032
66.4122,5.01236
67.3851,4.77626
68.3581,4.56287
69.3311,4.36381
70.3041,4.18165
71.277,4.01592
72.25,3.8654
73.223,3.72429
74.1959,3.57811
75.1689,3.42059
76.1419,3.24549
77.1149,3.05943
78.0878,2.86441
79.0608,2.67608
80.0338,2.49659
81.0068,2.32017
81.9797,2.13605
82.9527,1.94146
83.9257,1.75838
84.8986,1.59302
85.8716,1.44434
86.8446,1.31137
87.8176,1.19161
88.7905,1.08758
89.7635,0.996449
90.7365,0.91849
91.7095,0.854853
92.6824,0.804986
93.6554,0.772194
94.6284,0.741793
95.6014,0.703265
96.5743,0.649811
97.5473,0.589887
98.5203,0.527537
99.4932,0.466526
100.466,0.406319
101.439,0.344571
102.412,0.288759
103.385,0.234555
104.358,0.17436
105.331,0.120549
106.304,0.0852366
107.277,0.0746143
108.25,0.0742036
109.223,0.0867457
110.196,0.107042
111.169,0.132543
112.142,0.160919
113.115,0.1822
114.088,0.200065
115.061,0.220254
116.034,0.237324
117.007,0.248521
117.98,0.25182
118.953,0.249433
119.926,0.236371
120.899,0.215992
121.872,0.194724
122.845,0.183799
123.818,0.186742
124.791,0.190177
125.764,0.192315
126.736,0.19376
127.709,0.194784
128.682,0.19388
129.655,0.189065
130.628,0.181495
131.601,0.171806
132.574,0.15236
133.547,0.126482
134.52,0.109858
135.493,0.106222
136.466,0.11039
137.439,0.118155
138.412,0.129425
139.385,0.149588
140.358,0.181122
141.331,0.222384
142.304,0.270177
143.277,0.319436
144.25,0.354016
145.223,0.374252
146.196,0.386
147.169,0.379848
148.142,0.35532
149.115,0.327695
150.088,0.29475
151.061,0.253624
152.034,0.20668
153.007,0.155544
153.98,0.109206
154.953,0.0700122
155.926,0.0353613
156.899,0.00728216
157.872,0.0
158.845,0.0
159.818,0.0
160.791,0.0
161.764,0.0
162.736,0.0
163.709,0.0
164.682,0.0
165.655,0.0
166.628,0.0
167.601,0.0
168.574,0.0
169.547,0.0
170.52,0.0
171.493,0.0
172.466,0.0
173.439,0.0
174.412,0.0
175.385,0.0
176.358,0.0
177.331,0.0
178.304,0.0
179.277,0.0
180.25,0.0