File: Scaling_Pyrolysis/FSRI_XPS_Foam_Board-25.csv
Time,HRRPUA
0.0,0.0
141.75,0.0
157.5,4.18034
159.764,24.1136
162.028,64.425
164.292,121.07
166.557,188.258
168.821,255.067
171.085,315.341
173.349,369.039
175.613,418.754
177.877,462.614
180.142,497.237
182.406,517.188
184.67,521.442
186.934,512.642
189.198,493.882
191.462,468.396
193.726,438.162
195.991,408.302
198.255,379.964
200.519,354.375
202.783,332.298
205.047,313.596
207.311,296.106
209.575,279.236
211.84,261.567
214.104,242.643
216.368,221.835
218.632,200.445
220.896,178.388
223.16,156.87
225.425,136.211
227.689,116.659
229.953,98.1093
232.217,81.6574
234.481,67.2176
236.745,54.8881
239.009,45.1603
241.274,37.4797
243.538,31.2807
245.802,26.2951
248.066,21.9754
250.33,18.1179
252.594,14.8047
254.858,11.8612
257.123,9.30989
259.387,7.20979
261.651,5.48011
263.915,4.13635
266.179,3.04181
268.443,2.11528
270.708,1.40497
272.972,0.832814
275.236,0.408037
277.5,0.175401
279.764,0.0653828
282.028,0.0184022
284.292,0.0
286.557,0.0
288.821,0.0
291.085,0.0
293.349,0.0
295.613,0.0
297.877,0.0
300.142,0.0
302.406,0.0
304.67,0.0
306.934,0.0
309.198,0.0
311.462,0.0
313.726,0.0
315.991,0.0
318.255,0.0
320.519,0.0
322.783,0.0
325.047,0.0
327.311,0.0
329.575,0.0
331.84,0.0
334.104,0.0
336.368,0.0
338.632,0.0
340.896,0.0
343.16,0.0
345.425,0.0
347.689,0.0
349.953,0.0
352.217,0.0
354.481,0.0
356.745,0.0
359.009,0.0
361.274,0.0
363.538,0.0
365.802,0.0
368.066,0.0
370.33,0.0
372.594,0.0
374.858,0.0
377.123,0.0
379.387,0.0
381.651,0.0
383.915,0.0
386.179,0.0
388.443,0.0
390.708,0.0
392.972,0.0
395.236,0.0
397.5,0.0