File: Scaling_Pyrolysis/FSRI_XPS_Foam_Board-50.csv
Time,HRRPUA
0.0,0.0
10.35,0.0
11.5,5.56383
13.3261,23.7472
15.1522,52.6685
16.9783,90.4762
18.8043,136.688
20.6304,194.013
22.4565,255.169
24.2826,322.174
26.1087,401.413
27.9348,493.359
29.7609,590.805
31.587,685.476
33.413,770.778
35.2391,834.405
37.0652,870.652
38.8913,877.985
40.7174,859.925
42.5435,818.189
44.3696,758.982
46.1957,687.341
48.0217,609.974
49.8478,533.255
51.6739,459.857
53.5,392.006
55.3261,331.722
57.1522,279.319
58.9783,232.716
60.8043,191.274
62.6304,155.741
64.4565,126.134
66.2826,101.51
68.1087,80.8889
69.9348,64.4266
71.7609,51.6286
73.587,41.5776
75.413,33.5319
77.2391,27.3888
79.0652,22.7563
80.8913,19.1068
82.7174,16.0524
84.5435,13.5139
86.3696,11.4372
88.1957,9.66872
90.0217,7.96609
91.8478,6.32042
93.6739,4.86366
95.5,3.52493
97.3261,2.35201
99.1522,1.38677
100.978,0.749246
102.804,0.356351
104.63,0.130539
106.457,0.0216351
108.283,0.00437162
110.109,0.00437162
111.935,0.00437162
113.761,0.00437162
115.587,0.00366751
117.413,0.0
119.239,0.0
121.065,0.0
122.891,0.0
124.717,0.0
126.543,0.0
128.37,0.0
130.196,0.0
132.022,0.0
133.848,0.0
135.674,0.0
137.5,0.0
139.326,0.0
141.152,0.0
142.978,0.0
144.804,0.0
146.63,0.0
148.457,0.0
150.283,0.0
152.109,0.0
153.935,0.0
155.761,0.0
157.587,0.0
159.413,0.0
161.239,0.0
163.065,0.0
164.891,0.0
166.717,0.0
168.543,0.0
170.37,0.0
172.196,0.0
174.022,0.00201213
175.848,0.00201213
177.674,0.00201213
179.5,0.00201213
181.326,0.00201213
183.152,0.00201213
184.978,0.0
186.804,0.0
188.63,0.0
190.457,0.0
192.283,0.0
194.109,0.0
195.935,0.0
197.761,0.0
199.587,0.0
201.413,0.0
203.239,0.0
205.065,0.0
206.891,0.0
208.717,0.0
210.543,0.0
212.37,0.0
214.196,0.0
216.022,0.0
217.848,0.0
219.674,0.0
221.5,0.0